4
(Mg,Fe)O_HS (3rd BM, Y. Fei)
       1      170.000      4.00000
      4.21300
3.37e-5
d-spacing    I/I0     h   k   l
  2.4324     10.    1.00    1.00    1.00
  2.1065    100.    2.00    0.00    0.00
  1.4895     52.    2.00    2.00    0.00
  1.2700      4.    3.00    1.00    1.00
  1.2160     12.    2.00    2.00    2.00
  1.0533      5.    4.00    0.00    0.00
  0.9665      2.    3.00    3.00    1.00
  0.9419     17.    4.00    2.00    0.00
  0.8600     15.    4.00    2.00    2.00
  0.8109      3.    5.00    1.00    1.00
